# Energy/eV     Transmission
# C3H6 Density=0.9 Thickness=10. microns
    10.000      0.00000
    29.980      0.00000
    49.960      0.26779E-38
    69.940      0.41998E-19
    89.920      0.74900E-11
    109.90      0.68886E-07
    129.88      0.10671E-04
    149.86      0.26623E-03
    169.84      0.21201E-02
    189.82      0.90274E-02
    209.80      0.28227E-01
    229.78      0.61376E-01
    249.76      0.10828
    269.74      0.17942
    289.72      0.25761E-16
    309.70      0.49509E-14
    329.68      0.35420E-12
    349.66      0.11870E-10
    369.64      0.22022E-09
    389.62      0.29859E-08
    409.60      0.29429E-07
    429.58      0.20289E-06
    449.56      0.10480E-05
    469.54      0.42780E-05
    489.52      0.14459E-04
    509.50      0.42244E-04
    529.48      0.10744E-03
    549.46      0.24323E-03
    569.44      0.49902E-03
    589.42      0.94150E-03
    609.40      0.16537E-02
    629.38      0.27311E-02
    649.36      0.42769E-02
    669.34      0.63954E-02
    689.32      0.90739E-02
    709.30      0.12480E-01
    729.28      0.17123E-01
    749.26      0.22860E-01
    769.24      0.29697E-01
    789.22      0.37664E-01
    809.20      0.46760E-01
    829.18      0.56958E-01
    849.16      0.68231E-01
    869.14      0.80565E-01
    889.12      0.93871E-01
    909.10      0.10803
    929.08      0.12296
    949.06      0.13863
    969.04      0.15488
    989.02      0.17162
    1009.0      0.18874
    1029.0      0.20612
    1049.0      0.22383
    1068.9      0.24191
    1088.9      0.26004
    1108.9      0.27818
    1128.9      0.29626
    1148.9      0.31419
    1168.8      0.33196
    1188.8      0.34951
    1208.8      0.36681
    1228.8      0.38384
    1248.8      0.40064
    1268.7      0.41721
    1288.7      0.43356
    1308.7      0.44955
    1328.7      0.46515
    1348.7      0.48038
    1368.6      0.49521
    1388.6      0.50964
    1408.6      0.52368
    1428.6      0.53732
    1448.6      0.55057
    1468.5      0.56344
    1488.5      0.57594
    1508.5      0.58811
    1528.5      0.59993
    1548.5      0.61138
    1568.4      0.62248
    1588.4      0.63322
    1608.4      0.64362
    1628.4      0.65369
    1648.4      0.66343
    1668.3      0.67286
    1688.3      0.68198
    1708.3      0.69080
    1728.3      0.69934
    1748.3      0.70766
    1768.2      0.71571
    1788.2      0.72351
    1808.2      0.73106
    1828.2      0.73836
    1848.2      0.74542
    1868.1      0.75225
    1888.1      0.75886
    1908.1      0.76526
    1928.1      0.77144
    1948.1      0.77743
    1968.0      0.78322
    1988.0      0.78883
    2008.0      0.79423
    2028.0      0.79945
    2048.0      0.80457
    2067.9      0.80952
    2087.9      0.81431
    2107.9      0.81896
    2127.9      0.82346
    2147.9      0.82783
    2167.8      0.83206
    2187.8      0.83617
    2207.8      0.84014
    2227.8      0.84400
    2247.8      0.84774
    2267.7      0.85137
    2287.7      0.85490
    2307.7      0.85831
    2327.7      0.86163
    2347.7      0.86485
    2367.6      0.86798
    2387.6      0.87101
    2407.6      0.87396
    2427.6      0.87682
    2447.6      0.87960
    2467.5      0.88230
    2487.5      0.88492
    2507.5      0.88748
    2527.5      0.88995
    2547.5      0.89236
    2567.4      0.89470
    2587.4      0.89698
    2607.4      0.89920
    2627.4      0.90135
    2647.4      0.90345
    2667.3      0.90549
    2687.3      0.90747
    2707.3      0.90941
    2727.3      0.91129
    2747.3      0.91312
    2767.2      0.91490
    2787.2      0.91664
    2807.2      0.91833
    2827.2      0.91997
    2847.2      0.92158
    2867.1      0.92314
    2887.1      0.92467
    2907.1      0.92615
    2927.1      0.92760
    2947.1      0.92901
    2967.0      0.93039
    2987.0      0.93173
    3007.0      0.93304
    3027.0      0.93431
    3047.0      0.93556
    3066.9      0.93677
    3086.9      0.93796
    3106.9      0.93912
    3126.9      0.94025
    3146.9      0.94135
    3166.8      0.94243
    3186.8      0.94348
    3206.8      0.94450
    3226.8      0.94551
    3246.8      0.94649
    3266.7      0.94744
    3286.7      0.94838
    3306.7      0.94929
    3326.7      0.95018
    3346.7      0.95106
    3366.6      0.95191
    3386.6      0.95274
    3406.6      0.95356
    3426.6      0.95436
    3446.6      0.95514
    3466.5      0.95590
    3486.5      0.95664
    3506.5      0.95737
    3526.5      0.95809
    3546.5      0.95879
    3566.4      0.95947
    3586.4      0.96014
    3606.4      0.96079
    3626.4      0.96143
    3646.4      0.96206
    3666.3      0.96267
    3686.3      0.96328
    3706.3      0.96387
    3726.3      0.96444
    3746.3      0.96501
    3766.2      0.96556
    3786.2      0.96610
    3806.2      0.96663
    3826.2      0.96715
    3846.2      0.96766
    3866.1      0.96816
    3886.1      0.96865
    3906.1      0.96913
    3926.1      0.96960
    3946.1      0.97007
    3966.0      0.97052
    3986.0      0.97096
    4006.0      0.97139
    4026.0      0.97182
    4046.0      0.97223
    4065.9      0.97264
    4085.9      0.97305
    4105.9      0.97344
    4125.9      0.97383
    4145.9      0.97421
    4165.8      0.97458
    4185.8      0.97495
    4205.8      0.97531
    4225.8      0.97566
    4245.8      0.97601
    4265.7      0.97635
    4285.7      0.97668
    4305.7      0.97701
    4325.7      0.97733
    4345.7      0.97764
    4365.6      0.97795
    4385.6      0.97826
    4405.6      0.97855
    4425.6      0.97885
    4445.6      0.97914
    4465.5      0.97942
    4485.5      0.97970
    4505.5      0.97997
    4525.5      0.98024
    4545.5      0.98050
    4565.4      0.98076
    4585.4      0.98102
    4605.4      0.98127
    4625.4      0.98151
    4645.4      0.98175
    4665.3      0.98199
    4685.3      0.98223
    4705.3      0.98246
    4725.3      0.98268
    4745.3      0.98290
    4765.2      0.98312
    4785.2      0.98334
    4805.2      0.98355
    4825.2      0.98375
    4845.2      0.98396
    4865.1      0.98416
    4885.1      0.98436
    4905.1      0.98455
    4925.1      0.98474
    4945.1      0.98493
    4965.0      0.98512
    4985.0      0.98530
    5005.0      0.98548
    5025.0      0.98565
    5045.0      0.98583
    5064.9      0.98600
    5084.9      0.98617
    5104.9      0.98633
    5124.9      0.98650
    5144.9      0.98666
    5164.8      0.98681
    5184.8      0.98697
    5204.8      0.98712
    5224.8      0.98727
    5244.8      0.98742
    5264.7      0.98757
    5284.7      0.98771
    5304.7      0.98785
    5324.7      0.98799
    5344.7      0.98813
    5364.6      0.98827
    5384.6      0.98840
    5404.6      0.98853
    5424.6      0.98866
    5444.6      0.98879
    5464.5      0.98891
    5484.5      0.98904
    5504.5      0.98916
    5524.5      0.98928
    5544.5      0.98940
    5564.4      0.98952
    5584.4      0.98963
    5604.4      0.98975
    5624.4      0.98986
    5644.4      0.98997
    5664.3      0.99008
    5684.3      0.99018
    5704.3      0.99029
    5724.3      0.99039
    5744.3      0.99050
    5764.2      0.99060
    5784.2      0.99070
    5804.2      0.99080
    5824.2      0.99089
    5844.2      0.99099
    5864.1      0.99108
    5884.1      0.99118
    5904.1      0.99127
    5924.1      0.99136
    5944.1      0.99145
    5964.0      0.99154
    5984.0      0.99162
    6004.0      0.99171
    6024.0      0.99179
    6044.0      0.99188
    6063.9      0.99196
    6083.9      0.99204
    6103.9      0.99212
    6123.9      0.99220
    6143.9      0.99228
    6163.8      0.99235
    6183.8      0.99243
    6203.8      0.99251
    6223.8      0.99258
    6243.8      0.99265
    6263.7      0.99273
    6283.7      0.99280
    6303.7      0.99287
    6323.7      0.99294
    6343.7      0.99301
    6363.6      0.99307
    6383.6      0.99314
    6403.6      0.99321
    6423.6      0.99327
    6443.6      0.99334
    6463.5      0.99340
    6483.5      0.99346
    6503.5      0.99352
    6523.5      0.99358
    6543.5      0.99364
    6563.4      0.99370
    6583.4      0.99376
    6603.4      0.99382
    6623.4      0.99388
    6643.4      0.99394
    6663.3      0.99399
    6683.3      0.99405
    6703.3      0.99410
    6723.3      0.99416
    6743.3      0.99421
    6763.2      0.99426
    6783.2      0.99431
    6803.2      0.99437
    6823.2      0.99442
    6843.2      0.99447
    6863.1      0.99452
    6883.1      0.99456
    6903.1      0.99461
    6923.1      0.99466
    6943.1      0.99471
    6963.0      0.99476
    6983.0      0.99480
    7003.0      0.99485
    7023.0      0.99489
    7043.0      0.99494
    7062.9      0.99498
    7082.9      0.99502
    7102.9      0.99507
    7122.9      0.99511
    7142.9      0.99515
    7162.8      0.99519
    7182.8      0.99524
    7202.8      0.99528
    7222.8      0.99532
    7242.8      0.99536
    7262.7      0.99540
    7282.7      0.99543
    7302.7      0.99547
    7322.7      0.99551
    7342.7      0.99555
    7362.6      0.99559
    7382.6      0.99562
    7402.6      0.99566
    7422.6      0.99569
    7442.6      0.99573
    7462.5      0.99576
    7482.5      0.99580
    7502.5      0.99583
    7522.5      0.99587
    7542.5      0.99590
    7562.4      0.99593
    7582.4      0.99597
    7602.4      0.99600
    7622.4      0.99603
    7642.4      0.99606
    7662.3      0.99610
    7682.3      0.99613
    7702.3      0.99616
    7722.3      0.99619
    7742.3      0.99622
    7762.2      0.99625
    7782.2      0.99628
    7802.2      0.99631
    7822.2      0.99634
    7842.2      0.99636
    7862.1      0.99639
    7882.1      0.99642
    7902.1      0.99645
    7922.1      0.99648
    7942.1      0.99650
    7962.0      0.99653
    7982.0      0.99656
    8002.0      0.99658
    8022.0      0.99661
    8042.0      0.99663
    8061.9      0.99666
    8081.9      0.99669
    8101.9      0.99671
    8121.9      0.99674
    8141.9      0.99676
    8161.8      0.99678
    8181.8      0.99681
    8201.8      0.99683
    8221.8      0.99686
    8241.8      0.99688
    8261.7      0.99690
    8281.7      0.99692
    8301.7      0.99695
    8321.7      0.99697
    8341.7      0.99699
    8361.6      0.99701
    8381.6      0.99704
    8401.6      0.99706
    8421.6      0.99708
    8441.6      0.99710
    8461.5      0.99712
    8481.5      0.99714
    8501.5      0.99716
    8521.5      0.99718
    8541.5      0.99720
    8561.4      0.99722
    8581.4      0.99724
    8601.4      0.99726
    8621.4      0.99728
    8641.4      0.99730
    8661.3      0.99732
    8681.3      0.99734
    8701.3      0.99736
    8721.3      0.99737
    8741.3      0.99739
    8761.2      0.99741
    8781.2      0.99743
    8801.2      0.99745
    8821.2      0.99746
    8841.2      0.99748
    8861.1      0.99750
    8881.1      0.99751
    8901.1      0.99753
    8921.1      0.99755
    8941.1      0.99757
    8961.0      0.99758
    8981.0      0.99760
    9001.0      0.99761
    9021.0      0.99763
    9041.0      0.99765
    9060.9      0.99766
    9080.9      0.99768
    9100.9      0.99769
    9120.9      0.99771
    9140.9      0.99772
    9160.8      0.99774
    9180.8      0.99775
    9200.8      0.99777
    9220.8      0.99778
    9240.8      0.99780
    9260.7      0.99781
    9280.7      0.99782
    9300.7      0.99784
    9320.7      0.99785
    9340.7      0.99787
    9360.6      0.99788
    9380.6      0.99789
    9400.6      0.99791
    9420.6      0.99792
    9440.6      0.99793
    9460.5      0.99795
    9480.5      0.99796
    9500.5      0.99797
    9520.5      0.99799
    9540.5      0.99800
    9560.4      0.99801
    9580.4      0.99802
    9600.4      0.99804
    9620.4      0.99805
    9640.4      0.99806
    9660.3      0.99807
    9680.3      0.99808
    9700.3      0.99809
    9720.3      0.99811
    9740.3      0.99812
    9760.2      0.99813
    9780.2      0.99814
    9800.2      0.99815
    9820.2      0.99816
    9840.2      0.99817
    9860.1      0.99819
    9880.1      0.99820
    9900.1      0.99821
    9920.1      0.99822
    9940.1      0.99823
    9960.0      0.99824
    9980.0      0.99825
    10000.      0.99826
