PhotonEnergy(eV) Transmission  
    0.0000      0.00000
    10.000      0.16411E-09
    30.020      0.68417E-04
    50.040      0.20592E-01
    70.060      0.10520    
    90.080      0.26067    
    110.10      0.54707E-01
    130.12      0.20677E-01
    150.14      0.34448E-01
    170.16      0.38911E-01
    190.18      0.85614E-01
    210.20      0.12368    
    230.22      0.16655    
    250.24      0.21633    
    270.26      0.26983    
    290.28      0.32192    
    310.30      0.37284    
    330.32      0.42203    
    350.34      0.46751    
    370.36      0.51039    
    390.38      0.55336    
    410.40      0.32243    
    430.42      0.36349    
    450.44      0.40275    
    470.46      0.44027    
    490.48      0.47602    
    510.50      0.50949    
    530.52      0.54070    
    550.54      0.56973    
    570.56      0.59709    
    590.58      0.62362    
    610.60      0.64855    
    630.62      0.67154    
    650.64      0.69273    
    670.66      0.71226    
    690.68      0.73027    
    710.70      0.74657    
    730.72      0.76151    
    750.74      0.77534    
    770.76      0.78819    
    790.78      0.80032    
    810.80      0.81184    
    830.82      0.82262    
    850.84      0.83260    
    870.86      0.84180    
    890.88      0.85034    
    910.90      0.85842    
    930.92      0.86609    
    950.94      0.87327    
    970.96      0.87997    
    990.98      0.88621    
    1011.0      0.89203    
    1031.0      0.89745    
    1051.0      0.90254    
    1071.1      0.90733    
    1091.1      0.91179    
    1111.1      0.91587    
    1131.1      0.91966    
    1151.1      0.92322    
    1171.2      0.92658    
    1191.2      0.92974    
    1211.2      0.93272    
    1231.2      0.93554    
    1251.2      0.93821    
    1271.3      0.94075    
    1291.3      0.94317    
    1311.3      0.94546    
    1331.3      0.94763    
    1351.3      0.94969    
    1371.4      0.95164    
    1391.4      0.95349    
    1411.4      0.95525    
    1431.4      0.95692    
    1451.4      0.95851    
    1471.5      0.96002    
    1491.5      0.96146    
    1511.5      0.96285    
    1531.5      0.96417    
    1551.5      0.96544    
    1571.6      0.96665    
    1591.6      0.96780    
    1611.6      0.96889    
    1631.6      0.96994    
    1651.6      0.97094    
    1671.7      0.97190    
    1691.7      0.97281    
    1711.7      0.97369    
    1731.7      0.97453    
    1751.7      0.97534    
    1771.8      0.97613    
    1791.8      0.97688    
    1811.8      0.97760    
    1831.8      0.97830    
    1851.8      0.89099    
    1871.9      0.89366    
    1891.9      0.89624    
    1911.9      0.89874    
    1931.9      0.90116    
    1951.9      0.90349    
    1972.0      0.90575    
    1992.0      0.90795    
    2012.0      0.91007    
    2032.0      0.91213    
    2052.0      0.91414    
    2072.1      0.91608    
    2092.1      0.91798    
    2112.1      0.91984    
    2132.1      0.92165    
    2152.1      0.92340    
    2172.2      0.92511    
    2192.2      0.92677    
    2212.2      0.92838    
    2232.2      0.92995    
    2252.2      0.93148    
    2272.3      0.93296    
    2292.3      0.93440    
    2312.3      0.93581    
    2332.3      0.93717    
    2352.3      0.93850    
    2372.4      0.93979    
    2392.4      0.94106    
    2412.4      0.94228    
    2432.4      0.94347    
    2452.4      0.94464    
    2472.5      0.94577    
    2492.5      0.94687    
    2512.5      0.94795    
    2532.5      0.94899    
    2552.5      0.95001    
    2572.6      0.95100    
    2592.6      0.95197    
    2612.6      0.95291    
    2632.6      0.95383    
    2652.6      0.95473    
    2672.7      0.95560    
    2692.7      0.95646    
    2712.7      0.95729    
    2732.7      0.95810    
    2752.7      0.95889    
    2772.8      0.95966    
    2792.8      0.96042    
    2812.8      0.96115    
    2832.8      0.96187    
    2852.8      0.96257    
    2872.9      0.96325    
    2892.9      0.96392    
    2912.9      0.96457    
    2932.9      0.96521    
    2952.9      0.96583    
    2973.0      0.96644    
    2993.0      0.96703    
    3013.0      0.96761    
    3033.0      0.96818    
    3053.0      0.96873    
    3073.1      0.96928    
    3093.1      0.96981    
    3113.1      0.97032    
    3133.1      0.97083    
    3153.1      0.97132    
    3173.2      0.97181    
    3193.2      0.97228    
    3213.2      0.97274    
    3233.2      0.97320    
    3253.2      0.97364    
    3273.3      0.97407    
    3293.3      0.97450    
    3313.3      0.97491    
    3333.3      0.97532    
    3353.3      0.97572    
    3373.4      0.97611    
    3393.4      0.97649    
    3413.4      0.97686    
    3433.4      0.97723    
    3453.4      0.97758    
    3473.5      0.97794    
    3493.5      0.97828    
    3513.5      0.97862    
    3533.5      0.97895    
    3553.5      0.97927    
    3573.6      0.97959    
    3593.6      0.97990    
    3613.6      0.98020    
    3633.6      0.98050    
    3653.6      0.98079    
    3673.7      0.98108    
    3693.7      0.98136    
    3713.7      0.98163    
    3733.7      0.98190    
    3753.7      0.98217    
    3773.8      0.98243    
    3793.8      0.98268    
    3813.8      0.98293    
    3833.8      0.98318    
    3853.8      0.98342    
    3873.9      0.98366    
    3893.9      0.98389    
    3913.9      0.98412    
    3933.9      0.98434    
    3953.9      0.98456    
    3974.0      0.98477    
    3994.0      0.98498    
    4014.0      0.98519    
    4034.0      0.98540    
    4054.0      0.98560    
    4074.1      0.98579    
    4094.1      0.98598    
    4114.1      0.98617    
    4134.1      0.98636    
    4154.1      0.98654    
    4174.2      0.98672    
    4194.2      0.98690    
    4214.2      0.98707    
    4234.2      0.98724    
    4254.2      0.98741    
    4274.3      0.98757    
    4294.3      0.98774    
    4314.3      0.98789    
    4334.3      0.98805    
    4354.3      0.98820    
    4374.4      0.98836    
    4394.4      0.98850    
    4414.4      0.98865    
    4434.4      0.98879    
    4454.4      0.98893    
    4474.5      0.98907    
    4494.5      0.98921    
    4514.5      0.98934    
    4534.5      0.98948    
    4554.5      0.98961    
    4574.6      0.98973    
    4594.6      0.98986    
    4614.6      0.98998    
    4634.6      0.99010    
    4654.6      0.99022    
    4674.7      0.99034    
    4694.7      0.99046    
    4714.7      0.99057    
    4734.7      0.99068    
    4754.7      0.99080    
    4774.8      0.99090    
    4794.8      0.99101    
    4814.8      0.99112    
    4834.8      0.99122    
    4854.8      0.99132    
    4874.9      0.99142    
    4894.9      0.99152    
    4914.9      0.99162    
    4934.9      0.99172    
    4955.0      0.99181    
    4975.0      0.99190    
    4995.0      0.99200    
    5015.0      0.99209    
    5035.0      0.99218    
    5055.1      0.99226    
    5075.1      0.99235    
    5095.1      0.99244    
    5115.1      0.99252    
    5135.1      0.99260    
    5155.2      0.99268    
    5175.2      0.99276    
    5195.2      0.99284    
    5215.2      0.99292    
    5235.2      0.99300    
    5255.3      0.99307    
    5275.3      0.99315    
    5295.3      0.99322    
    5315.3      0.99330    
    5335.3      0.99337    
    5355.4      0.99344    
    5375.4      0.99351    
    5395.4      0.99358    
    5415.4      0.99364    
    5435.4      0.99371    
    5455.5      0.99378    
    5475.5      0.99384    
    5495.5      0.99390    
    5515.5      0.99397    
    5535.5      0.99403    
    5555.6      0.99409    
    5575.6      0.99415    
    5595.6      0.99421    
    5615.6      0.99427    
    5635.6      0.99433    
    5655.7      0.99439    
    5675.7      0.99444    
    5695.7      0.99450    
    5715.7      0.99455    
    5735.7      0.99461    
    5755.8      0.99466    
    5775.8      0.99472    
    5795.8      0.99477    
    5815.8      0.99482    
    5835.8      0.99487    
    5855.9      0.99492    
    5875.9      0.99497    
    5895.9      0.99502    
    5915.9      0.99507    
    5935.9      0.99511    
    5956.0      0.99516    
    5976.0      0.99521    
    5996.0      0.99525    
    6016.0      0.99530    
    6036.0      0.99534    
    6056.1      0.99539    
    6076.1      0.99543    
    6096.1      0.99548    
    6116.1      0.99552    
    6136.1      0.99556    
    6156.2      0.99560    
    6176.2      0.99564    
    6196.2      0.99568    
    6216.2      0.99572    
    6236.2      0.99576    
    6256.3      0.99580    
    6276.3      0.99584    
    6296.3      0.99588    
    6316.3      0.99592    
    6336.3      0.99595    
    6356.4      0.99599    
    6376.4      0.99603    
    6396.4      0.99606    
    6416.4      0.99610    
    6436.4      0.99613    
    6456.5      0.99617    
    6476.5      0.99620    
    6496.5      0.99623    
    6516.5      0.99627    
    6536.5      0.99630    
    6556.6      0.99633    
    6576.6      0.99637    
    6596.6      0.99640    
    6616.6      0.99643    
    6636.6      0.99646    
    6656.7      0.99649    
    6676.7      0.99652    
    6696.7      0.99655    
    6716.7      0.99658    
    6736.7      0.99661    
    6756.8      0.99664    
    6776.8      0.99667    
    6796.8      0.99670    
    6816.8      0.99672    
    6836.8      0.99675    
    6856.9      0.99678    
    6876.9      0.99681    
    6896.9      0.99683    
    6916.9      0.99686    
    6936.9      0.99689    
    6957.0      0.99691    
    6977.0      0.99694    
    6997.0      0.99696    
    7017.0      0.99699    
    7037.0      0.99701    
    7057.1      0.99704    
    7077.1      0.99706    
    7097.1      0.99709    
    7117.1      0.99711    
    7137.1      0.99713    
    7157.2      0.99716    
    7177.2      0.99718    
    7197.2      0.99720    
    7217.2      0.99723    
    7237.2      0.99725    
    7257.3      0.99727    
    7277.3      0.99729    
    7297.3      0.99731    
    7317.3      0.99733    
    7337.3      0.99736    
    7357.4      0.99738    
    7377.4      0.99740    
    7397.4      0.99742    
    7417.4      0.99744    
    7437.4      0.99746    
    7457.5      0.99748    
    7477.5      0.99750    
    7497.5      0.99752    
    7517.5      0.99754    
    7537.5      0.99756    
    7557.6      0.99757    
    7577.6      0.99759    
    7597.6      0.99761    
    7617.6      0.99763    
    7637.6      0.99765    
    7657.7      0.99767    
    7677.7      0.99768    
    7697.7      0.99770    
    7717.7      0.99772    
    7737.7      0.99774    
    7757.8      0.99775    
    7777.8      0.99777    
    7797.8      0.99779    
    7817.8      0.99780    
    7837.8      0.99782    
    7857.9      0.99783    
    7877.9      0.99785    
    7897.9      0.99787    
    7917.9      0.99788    
    7937.9      0.99790    
    7958.0      0.99791    
    7978.0      0.99793    
    7998.0      0.99794    
    8018.0      0.99796    
    8038.0      0.99797    
    8058.1      0.99799    
    8078.1      0.99800    
    8098.1      0.99802    
    8118.1      0.99803    
    8138.1      0.99805    
    8158.2      0.99806    
    8178.2      0.99807    
    8198.2      0.99809    
    8218.2      0.99810    
    8238.2      0.99811    
    8258.3      0.99813    
    8278.3      0.99814    
    8298.3      0.99815    
    8318.3      0.99817    
    8338.3      0.99818    
    8358.4      0.99819    
    8378.4      0.99821    
    8398.4      0.99822    
    8418.4      0.99823    
    8438.4      0.99824    
    8458.5      0.99825    
    8478.5      0.99827    
    8498.5      0.99828    
    8518.5      0.99829    
    8538.5      0.99830    
    8558.6      0.99831    
    8578.6      0.99832    
    8598.6      0.99834    
    8618.6      0.99835    
    8638.6      0.99836    
    8658.7      0.99837    
    8678.7      0.99838    
    8698.7      0.99839    
    8718.7      0.99840    
    8738.7      0.99841    
    8758.8      0.99842    
    8778.8      0.99843    
    8798.8      0.99844    
    8818.8      0.99846    
    8838.8      0.99847    
    8858.9      0.99848    
    8878.9      0.99849    
    8898.9      0.99850    
    8918.9      0.99851    
    8938.9      0.99852    
    8959.0      0.99853    
    8979.0      0.99853    
    8999.0      0.99854    
    9019.0      0.99855    
    9039.0      0.99856    
    9059.1      0.99857    
    9079.1      0.99858    
    9099.1      0.99859    
    9119.1      0.99860    
    9139.1      0.99861    
    9159.2      0.99862    
    9179.2      0.99863    
    9199.2      0.99864    
    9219.2      0.99864    
    9239.2      0.99865    
    9259.3      0.99866    
    9279.3      0.99867    
    9299.3      0.99868    
    9319.3      0.99869    
    9339.3      0.99869    
    9359.4      0.99870    
    9379.4      0.99871    
    9399.4      0.99872    
    9419.4      0.99873    
    9439.4      0.99874    
    9459.5      0.99874    
    9479.5      0.99875    
    9499.5      0.99876    
    9519.5      0.99877    
    9539.5      0.99877    
    9559.6      0.99878    
    9579.6      0.99879    
    9599.6      0.99880    
    9619.6      0.99880    
    9639.6      0.99881    
    9659.7      0.99882    
    9679.7      0.99883    
    9699.7      0.99883    
    9719.7      0.99884    
    9739.7      0.99885    
    9759.8      0.99885    
    9779.8      0.99886    
    9799.8      0.99887    
    9819.8      0.99887    
    9839.8      0.99888    
    9859.9      0.99889    
    9879.9      0.99889    
    9899.9      0.99890    
    9919.9      0.99891    
    9939.9      0.99891    
    9960.0      0.99892    
    9980.0      0.99893    
    10000.      0.99893    
