PhotonEnergy(eV) Transmission
    0.0000      0.00000
    10.000      0.29975E-06
    30.020      0.16728E-02
    50.040      0.75127E-01
    70.060      0.22285
    90.080      0.40806
    110.10      0.14411
    130.12      0.75335E-01
    150.14      0.10587
    170.16      0.11483
    190.18      0.19425
    210.20      0.24824
    230.22      0.30271
    250.24      0.36037
    270.26      0.41756
    290.28      0.46972
    310.30      0.51802
    330.32      0.56263
    350.34      0.60236
    370.36      0.63866
    390.38      0.67402
    410.40      0.47021
    430.42      0.50933
    450.44      0.54537
    470.46      0.57873
    490.48      0.60966
    510.50      0.63791
    530.52      0.66370
    550.54      0.68724
    570.56      0.70907
    590.58      0.72993
    610.60      0.74925
    630.62      0.76685
    650.64      0.78290
    670.66      0.79755
    690.68      0.81094
    710.70      0.82296
    730.72      0.83391
    750.74      0.84397
    770.76      0.85327
    790.78      0.86200
    810.80      0.87026
    830.82      0.87795
    850.84      0.88503
    870.86      0.89154
    890.88      0.89755
    910.90      0.90323
    930.92      0.90861
    950.94      0.91362
    970.96      0.91829
    990.98      0.92262
    1011.0      0.92666
    1031.0      0.93041
    1051.0      0.93392
    1071.1      0.93723
    1091.1      0.94029
    1111.1      0.94310
    1131.1      0.94570
    1151.1      0.94814
    1171.2      0.95043
    1191.2      0.95259
    1211.2      0.95463
    1231.2      0.95655
    1251.2      0.95837
    1271.3      0.96010
    1291.3      0.96175
    1311.3      0.96330
    1331.3      0.96478
    1351.3      0.96617
    1371.4      0.96750
    1391.4      0.96875
    1411.4      0.96994
    1431.4      0.97107
    1451.4      0.97214
    1471.5      0.97317
    1491.5      0.97414
    1511.5      0.97508
    1531.5      0.97597
    1551.5      0.97682
    1571.6      0.97764
    1591.6      0.97841
    1611.6      0.97915
    1631.6      0.97986
    1651.6      0.98053
    1671.7      0.98118
    1691.7      0.98179
    1711.7      0.98238
    1731.7      0.98295
    1751.7      0.98349
    1771.8      0.98402
    1791.8      0.98453
    1811.8      0.98501
    1831.8      0.98548
    1851.8      0.92594
    1871.9      0.92779
    1891.9      0.92957
    1911.9      0.93130
    1931.9      0.93297
    1951.9      0.93458
    1972.0      0.93614
    1992.0      0.93765
    2012.0      0.93911
    2032.0      0.94053
    2052.0      0.94191
    2072.1      0.94324
    2092.1      0.94455
    2112.1      0.94582
    2132.1      0.94706
    2152.1      0.94826
    2172.2      0.94943
    2192.2      0.95056
    2212.2      0.95167
    2232.2      0.95274
    2252.2      0.95378
    2272.3      0.95479
    2292.3      0.95578
    2312.3      0.95673
    2332.3      0.95766
    2352.3      0.95857
    2372.4      0.95945
    2392.4      0.96031
    2412.4      0.96114
    2432.4      0.96195
    2452.4      0.96274
    2472.5      0.96351
    2492.5      0.96426
    2512.5      0.96499
    2532.5      0.96570
    2552.5      0.96639
    2572.6      0.96706
    2592.6      0.96772
    2612.6      0.96836
    2632.6      0.96898
    2652.6      0.96959
    2672.7      0.97018
    2692.7      0.97076
    2712.7      0.97132
    2732.7      0.97187
    2752.7      0.97240
    2772.8      0.97292
    2792.8      0.97343
    2812.8      0.97393
    2832.8      0.97442
    2852.8      0.97489
    2872.9      0.97535
    2892.9      0.97580
    2912.9      0.97624
    2932.9      0.97667
    2952.9      0.97709
    2973.0      0.97750
    2993.0      0.97790
    3013.0      0.97829
    3033.0      0.97867
    3053.0      0.97905
    3073.1      0.97941
    3093.1      0.97977
    3113.1      0.98012
    3133.1      0.98046
    3153.1      0.98079
    3173.2      0.98112
    3193.2      0.98143
    3213.2      0.98175
    3233.2      0.98205
    3253.2      0.98235
    3273.3      0.98264
    3293.3      0.98293
    3313.3      0.98320
    3333.3      0.98348
    3353.3      0.98375
    3373.4      0.98401
    3393.4      0.98426
    3413.4      0.98451
    3433.4      0.98476
    3453.4      0.98500
    3473.5      0.98524
    3493.5      0.98547
    3513.5      0.98569
    3533.5      0.98591
    3553.5      0.98613
    3573.6      0.98634
    3593.6      0.98655
    3613.6      0.98676
    3633.6      0.98696
    3653.6      0.98715
    3673.7      0.98734
    3693.7      0.98753
    3713.7      0.98772
    3733.7      0.98790
    3753.7      0.98808
    3773.8      0.98825
    3793.8      0.98842
    3813.8      0.98859
    3833.8      0.98875
    3853.8      0.98892
    3873.9      0.98907
    3893.9      0.98923
    3913.9      0.98938
    3933.9      0.98953
    3953.9      0.98968
    3974.0      0.98982
    3994.0      0.98996
    4014.0      0.99010
    4034.0      0.99024
    4054.0      0.99037
    4074.1      0.99051
    4094.1      0.99063
    4114.1      0.99076
    4134.1      0.99089
    4154.1      0.99101
    4174.2      0.99113
    4194.2      0.99125
    4214.2      0.99136
    4234.2      0.99148
    4254.2      0.99159
    4274.3      0.99170
    4294.3      0.99181
    4314.3      0.99191
    4334.3      0.99202
    4354.3      0.99212
    4374.4      0.99222
    4394.4      0.99232
    4414.4      0.99242
    4434.4      0.99251
    4454.4      0.99261
    4474.5      0.99270
    4494.5      0.99279
    4514.5      0.99288
    4534.5      0.99297
    4554.5      0.99306
    4574.6      0.99314
    4594.6      0.99323
    4614.6      0.99331
    4634.6      0.99339
    4654.6      0.99347
    4674.7      0.99355
    4694.7      0.99363
    4714.7      0.99370
    4734.7      0.99378
    4754.7      0.99385
    4774.8      0.99393
    4794.8      0.99400
    4814.8      0.99407
    4834.8      0.99414
    4854.8      0.99421
    4874.9      0.99427
    4894.9      0.99434
    4914.9      0.99441
    4934.9      0.99447
    4955.0      0.99453
    4975.0      0.99460
    4995.0      0.99466
    5015.0      0.99472
    5035.0      0.99478
    5055.1      0.99484
    5075.1      0.99489
    5095.1      0.99495
    5115.1      0.99501
    5135.1      0.99506
    5155.2      0.99512
    5175.2      0.99517
    5195.2      0.99522
    5215.2      0.99528
    5235.2      0.99533
    5255.3      0.99538
    5275.3      0.99543
    5295.3      0.99548
    5315.3      0.99553
    5335.3      0.99557
    5355.4      0.99562
    5375.4      0.99567
    5395.4      0.99571
    5415.4      0.99576
    5435.4      0.99580
    5455.5      0.99585
    5475.5      0.99589
    5495.5      0.99593
    5515.5      0.99597
    5535.5      0.99602
    5555.6      0.99606
    5575.6      0.99610
    5595.6      0.99614
    5615.6      0.99618
    5635.6      0.99622
    5655.7      0.99625
    5675.7      0.99629
    5695.7      0.99633
    5715.7      0.99637
    5735.7      0.99640
    5755.8      0.99644
    5775.8      0.99647
    5795.8      0.99651
    5815.8      0.99654
    5835.8      0.99658
    5855.9      0.99661
    5875.9      0.99664
    5895.9      0.99668
    5915.9      0.99671
    5935.9      0.99674
    5956.0      0.99677
    5976.0      0.99680
    5996.0      0.99683
    6016.0      0.99686
    6036.0      0.99689
    6056.1      0.99692
    6076.1      0.99695
    6096.1      0.99698
    6116.1      0.99701
    6136.1      0.99704
    6156.2      0.99707
    6176.2      0.99709
    6196.2      0.99712
    6216.2      0.99715
    6236.2      0.99717
    6256.3      0.99720
    6276.3      0.99722
    6296.3      0.99725
    6316.3      0.99728
    6336.3      0.99730
    6356.4      0.99732
    6376.4      0.99735
    6396.4      0.99737
    6416.4      0.99740
    6436.4      0.99742
    6456.5      0.99744
    6476.5      0.99747
    6496.5      0.99749
    6516.5      0.99751
    6536.5      0.99753
    6556.6      0.99755
    6576.6      0.99758
    6596.6      0.99760
    6616.6      0.99762
    6636.6      0.99764
    6656.7      0.99766
    6676.7      0.99768
    6696.7      0.99770
    6716.7      0.99772
    6736.7      0.99774
    6756.8      0.99776
    6776.8      0.99778
    6796.8      0.99780
    6816.8      0.99782
    6836.8      0.99783
    6856.9      0.99785
    6876.9      0.99787
    6896.9      0.99789
    6916.9      0.99791
    6936.9      0.99792
    6957.0      0.99794
    6977.0      0.99796
    6997.0      0.99797
    7017.0      0.99799
    7037.0      0.99801
    7057.1      0.99802
    7077.1      0.99804
    7097.1      0.99806
    7117.1      0.99807
    7137.1      0.99809
    7157.2      0.99810
    7177.2      0.99812
    7197.2      0.99813
    7217.2      0.99815
    7237.2      0.99816
    7257.3      0.99818
    7277.3      0.99819
    7297.3      0.99821
    7317.3      0.99822
    7337.3      0.99824
    7357.4      0.99825
    7377.4      0.99826
    7397.4      0.99828
    7417.4      0.99829
    7437.4      0.99830
    7457.5      0.99832
    7477.5      0.99833
    7497.5      0.99834
    7517.5      0.99836
    7537.5      0.99837
    7557.6      0.99838
    7577.6      0.99839
    7597.6      0.99841
    7617.6      0.99842
    7637.6      0.99843
    7657.7      0.99844
    7677.7      0.99845
    7697.7      0.99847
    7717.7      0.99848
    7737.7      0.99849
    7757.8      0.99850
    7777.8      0.99851
    7797.8      0.99852
    7817.8      0.99853
    7837.8      0.99855
    7857.9      0.99856
    7877.9      0.99857
    7897.9      0.99858
    7917.9      0.99859
    7937.9      0.99860
    7958.0      0.99861
    7978.0      0.99862
    7998.0      0.99863
    8018.0      0.99864
    8038.0      0.99865
    8058.1      0.99866
    8078.1      0.99867
    8098.1      0.99868
    8118.1      0.99869
    8138.1      0.99870
    8158.2      0.99871
    8178.2      0.99872
    8198.2      0.99872
    8218.2      0.99873
    8238.2      0.99874
    8258.3      0.99875
    8278.3      0.99876
    8298.3      0.99877
    8318.3      0.99878
    8338.3      0.99879
    8358.4      0.99879
    8378.4      0.99880
    8398.4      0.99881
    8418.4      0.99882
    8438.4      0.99883
    8458.5      0.99884
    8478.5      0.99884
    8498.5      0.99885
    8518.5      0.99886
    8538.5      0.99887
    8558.6      0.99888
    8578.6      0.99888
    8598.6      0.99889
    8618.6      0.99890
    8638.6      0.99891
    8658.7      0.99891
    8678.7      0.99892
    8698.7      0.99893
    8718.7      0.99893
    8738.7      0.99894
    8758.8      0.99895
    8778.8      0.99896
    8798.8      0.99896
    8818.8      0.99897
    8838.8      0.99898
    8858.9      0.99898
    8878.9      0.99899
    8898.9      0.99900
    8918.9      0.99900
    8938.9      0.99901
    8959.0      0.99902
    8979.0      0.99902
    8999.0      0.99903
    9019.0      0.99904
    9039.0      0.99904
    9059.1      0.99905
    9079.1      0.99905
    9099.1      0.99906
    9119.1      0.99907
    9139.1      0.99907
    9159.2      0.99908
    9179.2      0.99908
    9199.2      0.99909
    9219.2      0.99910
    9239.2      0.99910
    9259.3      0.99911
    9279.3      0.99911
    9299.3      0.99912
    9319.3      0.99912
    9339.3      0.99913
    9359.4      0.99914
    9379.4      0.99914
    9399.4      0.99915
    9419.4      0.99915
    9439.4      0.99916
    9459.5      0.99916
    9479.5      0.99917
    9499.5      0.99917
    9519.5      0.99918
    9539.5      0.99918
    9559.6      0.99919
    9579.6      0.99919
    9599.6      0.99920
    9619.6      0.99920
    9639.6      0.99921
    9659.7      0.99921
    9679.7      0.99922
    9699.7      0.99922
    9719.7      0.99923
    9739.7      0.99923
    9759.8      0.99924
    9779.8      0.99924
    9799.8      0.99924
    9819.8      0.99925
    9839.8      0.99925
    9859.9      0.99926
    9879.9      0.99926
    9899.9      0.99927
    9919.9      0.99927
    9939.9      0.99928
    9960.0      0.99928
    9980.0      0.99928
    10000.      0.99929
