PhotonEnergy(eV) Transmission
    0.0000      0.00000
    10.000      0.26934E-19
    30.020      0.46808E-08
    50.040      0.42402E-03
    70.060      0.11067E-01
    90.080      0.67947E-01
    110.10      0.29928E-02
    130.12      0.42755E-03
    150.14      0.11867E-02
    170.16      0.15141E-02
    190.18      0.73297E-02
    210.20      0.15297E-01
    230.22      0.27738E-01
    250.24      0.46799E-01
    270.26      0.72806E-01
    290.28      0.10363
    310.30      0.13901
    330.32      0.17811
    350.34      0.21856
    370.36      0.26050
    390.38      0.30621
    410.40      0.10396
    430.42      0.13213
    450.44      0.16220
    470.46      0.19383
    490.48      0.22660
    510.50      0.25958
    530.52      0.29236
    550.54      0.32459
    570.56      0.35651
    590.58      0.38890
    610.60      0.42062
    630.62      0.45096
    650.64      0.47987
    670.66      0.50731
    690.68      0.53329
    710.70      0.55737
    730.72      0.57990
    750.74      0.60115
    770.76      0.62124
    790.78      0.64051
    810.80      0.65909
    830.82      0.67671
    850.84      0.69322
    870.86      0.70863
    890.88      0.72307
    910.90      0.73688
    930.92      0.75012
    950.94      0.76261
    970.96      0.77434
    990.98      0.78536
    1011.0      0.79571
    1031.0      0.80541
    1051.0      0.81458
    1071.1      0.82326
    1091.1      0.83136
    1111.1      0.83882
    1131.1      0.84577
    1151.1      0.85234
    1171.2      0.85855
    1191.2      0.86441
    1211.2      0.86997
    1231.2      0.87523
    1251.2      0.88024
    1271.3      0.88501
    1291.3      0.88957
    1311.3      0.89390
    1331.3      0.89801
    1351.3      0.90191
    1371.4      0.90562
    1391.4      0.90915
    1411.4      0.91250
    1431.4      0.91570
    1451.4      0.91874
    1471.5      0.92164
    1491.5      0.92440
    1511.5      0.92708
    1531.5      0.92963
    1551.5      0.93207
    1571.6      0.93440
    1591.6      0.93663
    1611.6      0.93875
    1631.6      0.94079
    1651.6      0.94273
    1671.7      0.94459
    1691.7      0.94637
    1711.7      0.94807
    1731.7      0.94971
    1751.7      0.95130
    1771.8      0.95283
    1791.8      0.95430
    1811.8      0.95571
    1831.8      0.95707
    1851.8      0.79386
    1871.9      0.79863
    1891.9      0.80325
    1911.9      0.80773
    1931.9      0.81208
    1951.9      0.81630
    1972.0      0.82039
    1992.0      0.82437
    2012.0      0.82823
    2032.0      0.83199
    2052.0      0.83565
    2072.1      0.83920
    2092.1      0.84269
    2112.1      0.84611
    2132.1      0.84944
    2152.1      0.85267
    2172.2      0.85583
    2192.2      0.85890
    2212.2      0.86190
    2232.2      0.86481
    2252.2      0.86765
    2272.3      0.87041
    2292.3      0.87311
    2312.3      0.87574
    2332.3      0.87829
    2352.3      0.88079
    2372.4      0.88321
    2392.4      0.88559
    2412.4      0.88789
    2432.4      0.89014
    2452.4      0.89234
    2472.5      0.89448
    2492.5      0.89657
    2512.5      0.89860
    2532.5      0.90058
    2552.5      0.90252
    2572.6      0.90441
    2592.6      0.90625
    2612.6      0.90805
    2632.6      0.90980
    2652.6      0.91151
    2672.7      0.91318
    2692.7      0.91481
    2712.7      0.91640
    2732.7      0.91796
    2752.7      0.91947
    2772.8      0.92095
    2792.8      0.92240
    2812.8      0.92381
    2832.8      0.92519
    2852.8      0.92654
    2872.9      0.92786
    2892.9      0.92914
    2912.9      0.93040
    2932.9      0.93163
    2952.9      0.93283
    2973.0      0.93401
    2993.0      0.93516
    3013.0      0.93628
    3033.0      0.93737
    3053.0      0.93845
    3073.1      0.93950
    3093.1      0.94052
    3113.1      0.94153
    3133.1      0.94251
    3153.1      0.94347
    3173.2      0.94441
    3193.2      0.94533
    3213.2      0.94623
    3233.2      0.94711
    3253.2      0.94797
    3273.3      0.94882
    3293.3      0.94964
    3313.3      0.95045
    3333.3      0.95125
    3353.3      0.95202
    3373.4      0.95278
    3393.4      0.95353
    3413.4      0.95426
    3433.4      0.95497
    3453.4      0.95567
    3473.5      0.95636
    3493.5      0.95703
    3513.5      0.95769
    3533.5      0.95833
    3553.5      0.95897
    3573.6      0.95959
    3593.6      0.96019
    3613.6      0.96079
    3633.6      0.96138
    3653.6      0.96195
    3673.7      0.96251
    3693.7      0.96306
    3713.7      0.96360
    3733.7      0.96413
    3753.7      0.96465
    3773.8      0.96517
    3793.8      0.96567
    3813.8      0.96616
    3833.8      0.96664
    3853.8      0.96711
    3873.9      0.96758
    3893.9      0.96803
    3913.9      0.96848
    3933.9      0.96892
    3953.9      0.96935
    3974.0      0.96978
    3994.0      0.97019
    4014.0      0.97060
    4034.0      0.97100
    4054.0      0.97140
    4074.1      0.97179
    4094.1      0.97217
    4114.1      0.97254
    4134.1      0.97291
    4154.1      0.97327
    4174.2      0.97362
    4194.2      0.97397
    4214.2      0.97431
    4234.2      0.97465
    4254.2      0.97498
    4274.3      0.97530
    4294.3      0.97562
    4314.3      0.97594
    4334.3      0.97624
    4354.3      0.97655
    4374.4      0.97685
    4394.4      0.97714
    4414.4      0.97743
    4434.4      0.97771
    4454.4      0.97799
    4474.5      0.97827
    4494.5      0.97854
    4514.5      0.97880
    4534.5      0.97906
    4554.5      0.97932
    4574.6      0.97957
    4594.6      0.97982
    4614.6      0.98007
    4634.6      0.98031
    4654.6      0.98054
    4674.7      0.98078
    4694.7      0.98101
    4714.7      0.98123
    4734.7      0.98146
    4754.7      0.98168
    4774.8      0.98189
    4794.8      0.98210
    4814.8      0.98231
    4834.8      0.98252
    4854.8      0.98272
    4874.9      0.98292
    4894.9      0.98312
    4914.9      0.98331
    4934.9      0.98350
    4955.0      0.98369
    4975.0      0.98387
    4995.0      0.98406
    5015.0      0.98424
    5035.0      0.98441
    5055.1      0.98459
    5075.1      0.98476
    5095.1      0.98493
    5115.1      0.98509
    5135.1      0.98526
    5155.2      0.98542
    5175.2      0.98558
    5195.2      0.98574
    5215.2      0.98589
    5235.2      0.98605
    5255.3      0.98620
    5275.3      0.98634
    5295.3      0.98649
    5315.3      0.98664
    5335.3      0.98678
    5355.4      0.98692
    5375.4      0.98706
    5395.4      0.98719
    5415.4      0.98733
    5435.4      0.98746
    5455.5      0.98759
    5475.5      0.98772
    5495.5      0.98785
    5515.5      0.98797
    5535.5      0.98810
    5555.6      0.98822
    5575.6      0.98834
    5595.6      0.98846
    5615.6      0.98857
    5635.6      0.98869
    5655.7      0.98880
    5675.7      0.98892
    5695.7      0.98903
    5715.7      0.98914
    5735.7      0.98925
    5755.8      0.98935
    5775.8      0.98946
    5795.8      0.98956
    5815.8      0.98966
    5835.8      0.98977
    5855.9      0.98987
    5875.9      0.98996
    5895.9      0.99006
    5915.9      0.99016
    5935.9      0.99025
    5956.0      0.99035
    5976.0      0.99044
    5996.0      0.99053
    6016.0      0.99062
    6036.0      0.99071
    6056.1      0.99080
    6076.1      0.99089
    6096.1      0.99097
    6116.1      0.99106
    6136.1      0.99114
    6156.2      0.99122
    6176.2      0.99130
    6196.2      0.99138
    6216.2      0.99146
    6236.2      0.99154
    6256.3      0.99162
    6276.3      0.99170
    6296.3      0.99177
    6316.3      0.99185
    6336.3      0.99192
    6356.4      0.99200
    6376.4      0.99207
    6396.4      0.99214
    6416.4      0.99221
    6436.4      0.99228
    6456.5      0.99235
    6476.5      0.99242
    6496.5      0.99248
    6516.5      0.99255
    6536.5      0.99262
    6556.6      0.99268
    6576.6      0.99275
    6596.6      0.99281
    6616.6      0.99287
    6636.6      0.99293
    6656.7      0.99299
    6676.7      0.99306
    6696.7      0.99312
    6716.7      0.99317
    6736.7      0.99323
    6756.8      0.99329
    6776.8      0.99335
    6796.8      0.99340
    6816.8      0.99346
    6836.8      0.99352
    6856.9      0.99357
    6876.9      0.99362
    6896.9      0.99368
    6916.9      0.99373
    6936.9      0.99378
    6957.0      0.99384
    6977.0      0.99389
    6997.0      0.99394
    7017.0      0.99399
    7037.0      0.99404
    7057.1      0.99409
    7077.1      0.99413
    7097.1      0.99418
    7117.1      0.99423
    7137.1      0.99428
    7157.2      0.99432
    7177.2      0.99437
    7197.2      0.99441
    7217.2      0.99446
    7237.2      0.99450
    7257.3      0.99455
    7277.3      0.99459
    7297.3      0.99463
    7317.3      0.99468
    7337.3      0.99472
    7357.4      0.99476
    7377.4      0.99480
    7397.4      0.99484
    7417.4      0.99488
    7437.4      0.99492
    7457.5      0.99496
    7477.5      0.99500
    7497.5      0.99504
    7517.5      0.99508
    7537.5      0.99512
    7557.6      0.99515
    7577.6      0.99519
    7597.6      0.99523
    7617.6      0.99526
    7637.6      0.99530
    7657.7      0.99534
    7677.7      0.99537
    7697.7      0.99541
    7717.7      0.99544
    7737.7      0.99548
    7757.8      0.99551
    7777.8      0.99554
    7797.8      0.99558
    7817.8      0.99561
    7837.8      0.99564
    7857.9      0.99567
    7877.9      0.99571
    7897.9      0.99574
    7917.9      0.99577
    7937.9      0.99580
    7958.0      0.99583
    7978.0      0.99586
    7998.0      0.99589
    8018.0      0.99592
    8038.0      0.99595
    8058.1      0.99598
    8078.1      0.99601
    8098.1      0.99604
    8118.1      0.99607
    8138.1      0.99609
    8158.2      0.99612
    8178.2      0.99615
    8198.2      0.99618
    8218.2      0.99620
    8238.2      0.99623
    8258.3      0.99626
    8278.3      0.99628
    8298.3      0.99631
    8318.3      0.99634
    8338.3      0.99636
    8358.4      0.99639
    8378.4      0.99641
    8398.4      0.99644
    8418.4      0.99646
    8438.4      0.99649
    8458.5      0.99651
    8478.5      0.99654
    8498.5      0.99656
    8518.5      0.99658
    8538.5      0.99661
    8558.6      0.99663
    8578.6      0.99665
    8598.6      0.99668
    8618.6      0.99670
    8638.6      0.99672
    8658.7      0.99674
    8678.7      0.99676
    8698.7      0.99679
    8718.7      0.99681
    8738.7      0.99683
    8758.8      0.99685
    8778.8      0.99687
    8798.8      0.99689
    8818.8      0.99691
    8838.8      0.99693
    8858.9      0.99695
    8878.9      0.99697
    8898.9      0.99699
    8918.9      0.99701
    8938.9      0.99703
    8959.0      0.99705
    8979.0      0.99707
    8999.0      0.99709
    9019.0      0.99711
    9039.0      0.99713
    9059.1      0.99715
    9079.1      0.99717
    9099.1      0.99718
    9119.1      0.99720
    9139.1      0.99722
    9159.2      0.99724
    9179.2      0.99726
    9199.2      0.99727
    9219.2      0.99729
    9239.2      0.99731
    9259.3      0.99732
    9279.3      0.99734
    9299.3      0.99736
    9319.3      0.99737
    9339.3      0.99739
    9359.4      0.99741
    9379.4      0.99742
    9399.4      0.99744
    9419.4      0.99746
    9439.4      0.99747
    9459.5      0.99749
    9479.5      0.99750
    9499.5      0.99752
    9519.5      0.99753
    9539.5      0.99755
    9559.6      0.99756
    9579.6      0.99758
    9599.6      0.99759
    9619.6      0.99761
    9639.6      0.99762
    9659.7      0.99764
    9679.7      0.99765
    9699.7      0.99767
    9719.7      0.99768
    9739.7      0.99769
    9759.8      0.99771
    9779.8      0.99772
    9799.8      0.99774
    9819.8      0.99775
    9839.8      0.99776
    9859.9      0.99778
    9879.9      0.99779
    9899.9      0.99780
    9919.9      0.99782
    9939.9      0.99783
    9960.0      0.99784
    9980.0      0.99785
    10000.      0.99787
