PhotonEnergy(eV) Transmission
     0.000       1.0000
    10.000       1.0000    
    29.980      0.00000    
    49.960      0.22813E-29
    69.940      0.00000    
    89.920      0.00000    
    109.90      0.22659E-40
    129.88      0.29873E-32
    149.86      0.58701E-26
    169.84      0.77480E-22
    189.82      0.31600E-18
    209.80      0.15551E-14
    229.78      0.56320E-12
    249.76      0.00000    
    269.74      0.00000    
    289.72      0.00000    
    309.70      0.00000    
    329.68      0.00000    
    349.66      0.00000    
    369.64      0.00000    
    389.62      0.00000    
    409.60      0.00000    
    429.58      0.00000    
    449.56      0.00000    
    469.54      0.14013E-44
    489.52      0.42305E-41
    509.50      0.65556E-38
    529.48      0.47735E-35
    549.46      0.25754E-32
    569.44      0.10005E-29
    589.42      0.20454E-27
    609.40      0.22967E-25
    629.38      0.16075E-23
    649.36      0.86462E-22
    669.34      0.35376E-20
    689.32      0.78630E-19
    709.30      0.12546E-17
    729.28      0.18198E-16
    749.26      0.21156E-15
    769.24      0.20045E-14
    789.22      0.16836E-13
    809.20      0.12436E-12
    829.18      0.77498E-12
    849.16      0.41252E-11
    869.14      0.18909E-10
    889.12      0.76319E-10
    909.10      0.27671E-09
    929.08      0.91521E-09
    949.06      0.28052E-08
    969.04      0.79537E-08
    989.02      0.20936E-07
    1009.0      0.51455E-07
    1029.0      0.11854E-06
    1049.0      0.25968E-06
    1068.9      0.54557E-06
    1088.9      0.10912E-05
    1108.9      0.20865E-05
    1128.9      0.38277E-05
    1148.9      0.67589E-05
    1168.8      0.11527E-04
    1188.8      0.19029E-04
    1208.8      0.30486E-04
    1228.8      0.47514E-04
    1248.8      0.72336E-04
    1268.7      0.10774E-03
    1288.7      0.15730E-03
    1308.7      0.22501E-03
    1328.7      0.31558E-03
    1348.7      0.43456E-03
    1368.6      0.58820E-03
    1388.6      0.78346E-03
    1408.6      0.10280E-02
    1428.6      0.13302E-02
    1448.6      0.16992E-02
    1468.5      0.21424E-02
    1488.5      0.26672E-02
    1508.5      0.32723E-02
    1528.5      0.39699E-02
    1548.5      0.47720E-02
    1568.4      0.56883E-02
    1588.4      0.67281E-02
    1608.4      0.78990E-02
    1628.4      0.92085E-02
    1648.4      0.10664E-01
    1668.3      0.12272E-01
    1688.3      0.14038E-01
    1708.3      0.15969E-01
    1728.3      0.18072E-01
    1748.3      0.20365E-01
    1768.2      0.22842E-01
    1788.2      0.25507E-01
    1808.2      0.28363E-01
    1828.2      0.31406E-01
    1848.2      0.34638E-01
    1868.1      0.38057E-01
    1888.1      0.41664E-01
    1908.1      0.45457E-01
    1928.1      0.49434E-01
    1948.1      0.53592E-01
    1968.0      0.57928E-01
    1988.0      0.62439E-01
    2008.0      0.67085E-01
    2028.0      0.71895E-01
    2048.0      0.76938E-01
    2067.9      0.82144E-01
    2087.9      0.87506E-01
    2107.9      0.93024E-01
    2127.9      0.98687E-01
    2147.9      0.10449    
    2167.8      0.11043    
    2187.8      0.11651    
    2207.8      0.12270    
    2227.8      0.12902    
    2247.8      0.13544    
    2267.7      0.14197    
    2287.7      0.14859    
    2307.7      0.15531    
    2327.7      0.16212    
    2347.7      0.16900    
    2367.6      0.17596    
    2387.6      0.18298    
    2407.6      0.19007    
    2427.6      0.19721    
    2447.6      0.20440    
    2467.5      0.21164    
    2487.5      0.21891    
    2507.5      0.22622    
    2527.5      0.23356    
    2547.5      0.24093    
    2567.4      0.24831    
    2587.4      0.25571    
    2607.4      0.26311    
    2627.4      0.27052    
    2647.4      0.27794    
    2667.3      0.28535    
    2687.3      0.29276    
    2707.3      0.30015    
    2727.3      0.30753    
    2747.3      0.31488    
    2767.2      0.32224    
    2787.2      0.32955    
    2807.2      0.33685    
    2827.2      0.34412    
    2847.2      0.35136    
    2867.1      0.35857    
    2887.1      0.36573    
    2907.1      0.37288    
    2927.1      0.37997    
    2947.1      0.38702    
    2967.0      0.39403    
    2987.0      0.40099    
    3007.0      0.40790    
    3027.0      0.41476    
    3047.0      0.42159    
    3066.9      0.42836    
    3086.9      0.43508    
    3106.9      0.44175    
    3126.9      0.44836    
    3146.9      0.45492    
    3166.8      0.46142    
    3186.8      0.46785    
    3206.8      0.78125E-03
    3226.8      0.87116E-03
    3246.8      0.96920E-03
    3266.7      0.10758E-02
    3286.7      0.11920E-02
    3306.7      0.13185E-02
    3326.7      0.14552E-02
    3346.7      0.16032E-02
    3366.6      0.17628E-02
    3386.6      0.19346E-02
    3406.6      0.21199E-02
    3426.6      0.23187E-02
    3446.6      0.25318E-02
    3466.5      0.27599E-02
    3486.5      0.30035E-02
    3506.5      0.32640E-02
    3526.5      0.35418E-02
    3546.5      0.38371E-02
    3566.4      0.41518E-02
    3586.4      0.44857E-02
    3606.4      0.48392E-02
    3626.4      0.52137E-02
    3646.4      0.56092E-02
    3666.3      0.60263E-02
    3686.3      0.64669E-02
    3706.3      0.69305E-02
    3726.3      0.74175E-02
    3746.3      0.79308E-02
    3766.2      0.84688E-02
    3786.2      0.90323E-02
    3806.2      0.96237E-02
    3826.2      0.10242E-01
    3846.2      0.10887E-01
    3866.1      0.11562E-01
    3886.1      0.12266E-01
    3906.1      0.12998E-01
    3926.1      0.13761E-01
    3946.1      0.14555E-01
    3966.0      0.15379E-01
    3986.0      0.16235E-01
    4006.0      0.17124E-01
    4026.0      0.18044E-01
    4046.0      0.18998E-01
    4065.9      0.19985E-01
    4085.9      0.21005E-01
    4105.9      0.22058E-01
    4125.9      0.23147E-01
    4145.9      0.24270E-01
    4165.8      0.25426E-01
    4185.8      0.26618E-01
    4205.8      0.27846E-01
    4225.8      0.29107E-01
    4245.8      0.30404E-01
    4265.7      0.31738E-01
    4285.7      0.33106E-01
    4305.7      0.34509E-01
    4325.7      0.35950E-01
    4345.7      0.37426E-01
    4365.6      0.38936E-01
    4385.6      0.40484E-01
    4405.6      0.42068E-01
    4425.6      0.43686E-01
    4445.6      0.45339E-01
    4465.5      0.47030E-01
    4485.5      0.48755E-01
    4505.5      0.50514E-01
    4525.5      0.52308E-01
    4545.5      0.54139E-01
    4565.4      0.56003E-01
    4585.4      0.57900E-01
    4605.4      0.59833E-01
    4625.4      0.61800E-01
    4645.4      0.63799E-01
    4665.3      0.65830E-01
    4685.3      0.67898E-01
    4705.3      0.69996E-01
    4725.3      0.72126E-01
    4745.3      0.74287E-01
    4765.2      0.76482E-01
    4785.2      0.78707E-01
    4805.2      0.80961E-01
    4825.2      0.83246E-01
    4845.2      0.85562E-01
    4865.1      0.87906E-01
    4885.1      0.90278E-01
    4905.1      0.92680E-01
    4925.1      0.95111E-01
    4945.1      0.97569E-01
    4965.0      0.10005    
    4985.0      0.10256    
    5005.0      0.10510    
    5025.0      0.10766    
    5045.0      0.11025    
    5064.9      0.11286    
    5084.9      0.11550    
    5104.9      0.11816    
    5124.9      0.12084    
    5144.9      0.12354    
    5164.8      0.12627    
    5184.8      0.12902    
    5204.8      0.13179    
    5224.8      0.13458    
    5244.8      0.13739    
    5264.7      0.14022    
    5284.7      0.14307    
    5304.7      0.14593    
    5324.7      0.14882    
    5344.7      0.15172    
    5364.6      0.15463    
    5384.6      0.15757    
    5404.6      0.16051    
    5424.6      0.16348    
    5444.6      0.16646    
    5464.5      0.16945    
    5484.5      0.17245    
    5504.5      0.17547    
    5524.5      0.17850    
    5544.5      0.18154    
    5564.4      0.18459    
    5584.4      0.18766    
    5604.4      0.19073    
    5624.4      0.19382    
    5644.4      0.19691    
    5664.3      0.20002    
    5684.3      0.20313    
    5704.3      0.20625    
    5724.3      0.20938    
    5744.3      0.21251    
    5764.2      0.21565    
    5784.2      0.21880    
    5804.2      0.22195    
    5824.2      0.22511    
    5844.2      0.22827    
    5864.1      0.23144    
    5884.1      0.23462    
    5904.1      0.23779    
    5924.1      0.24097    
    5944.1      0.24415    
    5964.0      0.24734    
    5984.0      0.25052    
    6004.0      0.25371    
    6024.0      0.25689    
    6044.0      0.26009    
    6063.9      0.26328    
    6083.9      0.26647    
    6103.9      0.26966    
    6123.9      0.27285    
    6143.9      0.27604    
    6163.8      0.27923    
    6183.8      0.28241    
    6203.8      0.28560    
    6223.8      0.28878    
    6243.8      0.29196    
    6263.7      0.29514    
    6283.7      0.29831    
    6303.7      0.30148    
    6323.7      0.30464    
    6343.7      0.30781    
    6363.6      0.31097    
    6383.6      0.31412    
    6403.6      0.31727    
    6423.6      0.32041    
    6443.6      0.32355    
    6463.5      0.32669    
    6483.5      0.32982    
    6503.5      0.33294    
    6523.5      0.33605    
    6543.5      0.33916    
    6563.4      0.34227    
    6583.4      0.34537    
    6603.4      0.34846    
    6623.4      0.35154    
    6643.4      0.35462    
    6663.3      0.35769    
    6683.3      0.36075    
    6703.3      0.36380    
    6723.3      0.36685    
    6743.3      0.36988    
    6763.2      0.37291    
    6783.2      0.37593    
    6803.2      0.37894    
    6823.2      0.38195    
    6843.2      0.38494    
    6863.1      0.38792    
    6883.1      0.39089    
    6903.1      0.39386    
    6923.1      0.39681    
    6943.1      0.39975    
    6963.0      0.40269    
    6983.0      0.40561    
    7003.0      0.40853    
    7023.0      0.41144    
    7043.0      0.41434    
    7062.9      0.41722    
    7082.9      0.42010    
    7102.9      0.42296    
    7122.9      0.42582    
    7142.9      0.42866    
    7162.8      0.43149    
    7182.8      0.43431    
    7202.8      0.43712    
    7222.8      0.43992    
    7242.8      0.44271    
    7262.7      0.44549    
    7282.7      0.44826    
    7302.7      0.45102    
    7322.7      0.45376    
    7342.7      0.45650    
    7362.6      0.45922    
    7382.6      0.46193    
    7402.6      0.46462    
    7422.6      0.46731    
    7442.6      0.46998    
    7462.5      0.47265    
    7482.5      0.47530    
    7502.5      0.47794    
    7522.5      0.48057    
    7542.5      0.48319    
    7562.4      0.48579    
    7582.4      0.48839    
    7602.4      0.49097    
    7622.4      0.49354    
    7642.4      0.49609    
    7662.3      0.49864    
    7682.3      0.50117    
    7702.3      0.50370    
    7722.3      0.50621    
    7742.3      0.50871    
    7762.2      0.51120    
    7782.2      0.51368    
    7802.2      0.51614    
    7822.2      0.51859    
    7842.2      0.52104    
    7862.1      0.52347    
    7882.1      0.52588    
    7902.1      0.52829    
    7922.1      0.53068    
    7942.1      0.53306    
    7962.0      0.53543    
    7982.0      0.53779    
    8002.0      0.54013    
    8022.0      0.54246    
    8042.0      0.54478    
    8061.9      0.54709    
    8081.9      0.54939    
    8101.9      0.55168    
    8121.9      0.55395    
    8141.9      0.55622    
    8161.8      0.55847    
    8181.8      0.56071    
    8201.8      0.56293    
    8221.8      0.56515    
    8241.8      0.56735    
    8261.7      0.56955    
    8281.7      0.57173    
    8301.7      0.57390    
    8321.7      0.57605    
    8341.7      0.57820    
    8361.6      0.58034    
    8381.6      0.58246    
    8401.6      0.58458    
    8421.6      0.58668    
    8441.6      0.58877    
    8461.5      0.59085    
    8481.5      0.59292    
    8501.5      0.59498    
    8521.5      0.59703    
    8541.5      0.59907    
    8561.4      0.60110    
    8581.4      0.60311    
    8601.4      0.60512    
    8621.4      0.60711    
    8641.4      0.60909    
    8661.3      0.61106    
    8681.3      0.61302    
    8701.3      0.61497    
    8721.3      0.61691    
    8741.3      0.61884    
    8761.2      0.62075    
    8781.2      0.62266    
    8801.2      0.62456    
    8821.2      0.62644    
    8841.2      0.62832    
    8861.1      0.63018    
    8881.1      0.63203    
    8901.1      0.63388    
    8921.1      0.63571    
    8941.1      0.63754    
    8961.0      0.63935    
    8981.0      0.64115    
    9001.0      0.64294    
    9021.0      0.64473    
    9041.0      0.64650    
    9060.9      0.64826    
    9080.9      0.65002    
    9100.9      0.65176    
    9120.9      0.65349    
    9140.9      0.65522    
    9160.8      0.65693    
    9180.8      0.65864    
    9200.8      0.66033    
    9220.8      0.66202    
    9240.8      0.66369    
    9260.7      0.66536    
    9280.7      0.66702    
    9300.7      0.66866    
    9320.7      0.67030    
    9340.7      0.67193    
    9360.6      0.67355    
    9380.6      0.67516    
    9400.6      0.67676    
    9420.6      0.67836    
    9440.6      0.67994    
    9460.5      0.68151    
    9480.5      0.68308    
    9500.5      0.68463    
    9520.5      0.68618    
    9540.5      0.68772    
    9560.4      0.68925    
    9580.4      0.69077    
    9600.4      0.69228    
    9620.4      0.69379    
    9640.4      0.69528    
    9660.3      0.69677    
    9680.3      0.69825    
    9700.3      0.69972    
    9720.3      0.70118    
    9740.3      0.70263    
    9760.2      0.70408    
    9780.2      0.70551    
    9800.2      0.70694    
    9820.2      0.70836    
    9840.2      0.70977    
    9860.1      0.71118    
    9880.1      0.71257    
    9900.1      0.71396    
    9920.1      0.71534    
    9940.1      0.71671    
    9960.0      0.71808    
    9980.0      0.71943    
    10000.      0.72078    
